Wavelength(nm)	Efficiency_0mm_slit_height	Efficiency_5mm_slit_height	Efficiency_10mm_slit_height	Efficiency_15mm_slit_height	Efficiency_20mm_slit_height	Efficiency_25mm_slit_height	Efficiency_30mm_slit_height
465.00	0.260335	0.261374	0.261533	0.259244	0.253825	0.245982	0.235443
466.00	0.262760	0.263827	0.263668	0.261362	0.256271	0.248429	0.237663
467.00	0.266171	0.267125	0.266834	0.264203	0.259344	0.251433	0.240555
468.00	0.268543	0.269453	0.268921	0.266091	0.260954	0.253498	0.242514
469.00	0.270680	0.271547	0.270744	0.267535	0.262129	0.254904	0.243941
470.00	0.271571	0.272356	0.271253	0.267834	0.262039	0.254961	0.244106
471.00	0.274728	0.275404	0.274033	0.270196	0.264082	0.256715	0.246181
472.00	0.276504	0.277104	0.275475	0.271282	0.264738	0.257010	0.246848
473.00	0.276583	0.276967	0.275061	0.270508	0.263729	0.255587	0.245701
474.00	0.278578	0.278891	0.276667	0.271661	0.264422	0.255999	0.246354
475.00	0.281009	0.281116	0.278575	0.273116	0.265489	0.256671	0.246772
476.00	0.283337	0.283309	0.280284	0.274448	0.266476	0.257126	0.246940
477.00	0.286662	0.286432	0.283056	0.276655	0.268099	0.258478	0.247939
478.00	0.290692	0.290262	0.286322	0.279446	0.270362	0.260415	0.249281
479.00	0.295082	0.294349	0.289911	0.282415	0.272936	0.262364	0.250879
480.00	0.298983	0.298052	0.292952	0.284919	0.274812	0.263849	0.251998
481.00	0.303908	0.302640	0.296896	0.288230	0.277570	0.266145	0.253779
482.00	0.309153	0.307477	0.301084	0.291671	0.280411	0.268514	0.255695
483.00	0.313531	0.311486	0.304252	0.294292	0.282430	0.269985	0.256748
484.00	0.320230	0.317697	0.309671	0.298806	0.286466	0.273381	0.259556
485.00	0.327009	0.323911	0.314974	0.303370	0.290327	0.276665	0.262316
486.00	0.331534	0.327889	0.318062	0.305791	0.292168	0.278092	0.263166
487.00	0.337846	0.333696	0.322913	0.309933	0.295680	0.280917	0.265468
488.00	0.343815	0.339153	0.327582	0.313853	0.298965	0.283736	0.267539
489.00	0.348069	0.343496	0.331159	0.316745	0.301331	0.285484	0.268764
490.00	0.352938	0.350389	0.337417	0.322294	0.306102	0.289644	0.272095
491.00	0.356070	0.356051	0.342675	0.326861	0.310136	0.292941	0.274705
492.00	0.359747	0.361652	0.348168	0.331847	0.314365	0.296507	0.277345
493.00	0.361934	0.365020	0.352065	0.335259	0.317156	0.298698	0.278557
494.00	0.365545	0.368994	0.357039	0.339746	0.321132	0.301678	0.280419
495.00	0.367593	0.371061	0.360019	0.342454	0.323321	0.302895	0.280467
496.00	0.367637	0.371106	0.360740	0.343108	0.323243	0.302339	0.278416
497.00	0.366635	0.370094	0.360057	0.342210	0.321935	0.300530	0.274738
498.00	0.365608	0.369057	0.358637	0.340757	0.320299	0.298550	0.270619
499.00	0.363593	0.366179	0.355938	0.338275	0.317744	0.295766	0.265283
500.00	0.360145	0.362300	0.352567	0.335316	0.314764	0.292302	0.258954
501.00	0.355043	0.355830	0.346655	0.329879	0.309398	0.286716	0.250261
502.00	0.350186	0.350412	0.341608	0.325274	0.304867	0.280789	0.241654
503.00	0.342546	0.342431	0.334012	0.318152	0.297923	0.271938	0.230566
504.00	0.335989	0.335574	0.327496	0.312001	0.291870	0.263195	0.219339
505.00	0.327983	0.327377	0.319590	0.304471	0.284510	0.252490	0.206556
625.00	0.200648	0.202279	0.204189	0.205125	0.204803	0.203841	0.201232
626.00	0.202012	0.203628	0.205356	0.206227	0.205870	0.204721	0.202111
627.00	0.203000	0.204627	0.206288	0.207095	0.206614	0.205433	0.202794
628.00	0.204271	0.205910	0.207596	0.208193	0.207619	0.206282	0.203736
629.00	0.205326	0.207005	0.208596	0.209161	0.208404	0.206884	0.204337
630.00	0.206525	0.208074	0.209602	0.209988	0.209171	0.207439	0.204772
631.00	0.207540	0.209156	0.210534	0.210859	0.209862	0.208101	0.205159
632.00	0.208065	0.209604	0.210973	0.211094	0.210011	0.208047	0.204996
633.00	0.208731	0.210307	0.211498	0.211562	0.210189	0.208140	0.204947
634.00	0.209415	0.211028	0.212158	0.212022	0.210508	0.208259	0.204925
635.00	0.210122	0.211633	0.212645	0.212368	0.210687	0.208242	0.204771
636.00	0.210829	0.212322	0.213219	0.212776	0.210872	0.208260	0.204653
637.00	0.212001	0.213452	0.214182	0.213630	0.211587	0.208808	0.204883
638.00	0.213040	0.214423	0.215042	0.214241	0.212064	0.209148	0.205176
639.00	0.214572	0.215970	0.216371	0.215436	0.213062	0.209889	0.205889
640.00	0.215558	0.216807	0.217128	0.215950	0.213304	0.210028	0.205895
641.00	0.217294	0.218588	0.218694	0.217327	0.214486	0.210895	0.206614
642.00	0.219016	0.220193	0.220168	0.218558	0.215467	0.211736	0.207224
643.00	0.220583	0.221697	0.221459	0.219664	0.216355	0.212344	0.207748
644.00	0.221783	0.222832	0.222359	0.220273	0.216726	0.212558	0.207686
645.00	0.223674	0.224716	0.224006	0.221653	0.217858	0.213464	0.208418
646.00	0.225419	0.226268	0.225378	0.222761	0.218724	0.214111	0.208839
647.00	0.227518	0.228308	0.227131	0.224166	0.219908	0.215068	0.209592
648.00	0.229507	0.230212	0.228721	0.225492	0.220933	0.215812	0.210161
649.00	0.231706	0.232248	0.230471	0.226922	0.222117	0.216743	0.210802
650.00	0.234131	0.234563	0.232445	0.228600	0.223487	0.217853	0.211701
651.00	0.236682	0.236979	0.234466	0.230269	0.224818	0.219034	0.212640
652.00	0.239241	0.239296	0.236416	0.231895	0.226191	0.220062	0.213427
653.00	0.240521	0.240310	0.237132	0.232205	0.226251	0.219978	0.213082
654.00	0.243377	0.243032	0.239351	0.234122	0.227825	0.221172	0.214111
655.00	0.245520	0.244909	0.240816	0.235165	0.228654	0.221779	0.214462
656.00	0.248115	0.247239	0.242672	0.236724	0.229822	0.222685	0.215068
657.00	0.250648	0.249480	0.244440	0.238114	0.230957	0.223559	0.215671
658.00	0.252500	0.251017	0.245597	0.238909	0.231489	0.223848	0.215539
659.00	0.254726	0.253003	0.247113	0.240104	0.232379	0.224452	0.215735
660.00	0.256448	0.254487	0.248239	0.240918	0.232924	0.224805	0.215607
661.00	0.256866	0.255060	0.248525	0.240940	0.232730	0.224275	0.214707
662.00	0.256401	0.255492	0.248900	0.241099	0.232667	0.223790	0.213817
663.00	0.257734	0.256966	0.249993	0.242121	0.233505	0.224190	0.213793
664.00	0.256832	0.257285	0.250119	0.241970	0.233123	0.223543	0.212681
665.00	0.255703	0.257083	0.249596	0.241359	0.232287	0.222451	0.211160
666.00	0.254429	0.256342	0.248378	0.240315	0.230995	0.220933	0.209525
667.00	0.252982	0.255368	0.248002	0.238922	0.229360	0.219024	0.207588
668.00	0.250907	0.252819	0.246200	0.236701	0.226843	0.216392	0.204846
669.00	0.248827	0.250898	0.244624	0.234744	0.224547	0.214204	0.202583
670.00	0.247382	0.249340	0.243266	0.233065	0.222642	0.212171	0.200532
671.00	0.244935	0.246798	0.240892	0.230561	0.219875	0.209316	0.197727
672.00	0.242288	0.244081	0.238315	0.227912	0.216971	0.206276	0.194686
673.00	0.239306	0.240881	0.235429	0.225014	0.213859	0.203067	0.191357
674.00	0.235830	0.237162	0.232026	0.221792	0.210400	0.199252	0.187521
675.00	0.231119	0.232231	0.227451	0.217393	0.205950	0.194587	0.182767
676.00	0.225977	0.226897	0.222303	0.212122	0.201157	0.189661	0.177755
677.00	0.221418	0.222154	0.217706	0.208162	0.196853	0.185224	0.173108
678.00	0.216630	0.217185	0.213250	0.203875	0.192459	0.180622	0.167905
679.00	0.211917	0.212362	0.208584	0.199640	0.188164	0.176171	0.163062
680.00	0.206622	0.207003	0.203387	0.194771	0.183312	0.171201	0.157325
